\comment ORDFIND formatted solutions for order wavelengths, curvature, and widths
\comment Checked 03/12/03, P. Morris
\comment Flight update 12/06/03 P. Morris.
\character channelID = 1
| order | wavelength_center |  a5       | a4        | a3        |  a2       |    a1     | a0        |  b5       | b4        | b3        |  b2       |    b1     | b0        | wavelength_min | wavelength_max | width_search |  width_found |
| int   | real              |  real     | real      | real      |  real     |    real   | real      |  real     | real      | real      |  real     |    real   | real      | real           | real           | real         |  real        |
11          18.6561         0.0000e+00  0.0000e+00    0.0000e+00  0.0000e+00   -62.6791   9.79688   0.0000e+00    0.0000e+00  0.0000e+00    0.0000e+00  -1275.57  64.0000    17.7200           19.5921           8.5000e+00     6.25000e+00
12          17.1507         0.0000e+00  0.0000e+00    0.0000e+00  0.0000e+00   -48.2989   30.2969   0.0000e+00    0.0000e+00  0.0000e+00    0.0000e+00  -1304.94  64.0001    16.3095           17.9918           8.5000e+00     6.25000e+00
13          15.8620         0.0000e+00  0.0000e+00    0.0000e+00  0.0000e+00   -32.4721   47.7578   0.0000e+00    0.0000e+00  0.0000e+00    0.0000e+00  -1291.29  64.0000    15.0759           16.6482           8.5000e+00     6.25000e+00
14          14.6753         0.0000e+00  0.0000e+00    0.0000e+00  0.0000e+00   -28.2601   62.8360   0.0000e+00    0.0000e+00  0.0000e+00    0.0000e+00  -1556.17  64.0000    14.0717           15.2788           8.5000e+00     6.25000e+00
15          13.7864         0.0000e+00  0.0000e+00    0.0000e+00  0.0000e+00   -4.51893   76.0468   0.0000e+00    0.0000e+00  0.0000e+00    0.0000e+00  -1303.12  64.0012    13.1093           14.4635           8.5000e+00     6.25000e+00
16          12.9372         0.0000e+00  0.0000e+00    0.0000e+00  0.0000e+00   -12.6835   87.2890   0.0000e+00    0.0000e+00  0.0000e+00    0.0000e+00  -1318.14  64.0000    12.3090           13.5653           8.5000e+00     6.25000e+00
17          12.2011         0.0000e+00  0.0000e+00    0.0000e+00  0.0000e+00    10.6025   97.8203   0.0000e+00    0.0000e+00  0.0000e+00    0.0000e+00  -1413.81  64.0000    11.6488           12.7534           8.5000e+00     6.25000e+00
18          11.4995         0.0000e+00  0.0000e+00    0.0000e+00  0.0000e+00    15.4906   106.734   0.0000e+00    0.0000e+00  0.0000e+00    0.0000e+00  -1271.49  64.0000    10.9207           12.0783           8.5000e+00     6.25000e+00
19          10.9247         0.0000e+00  0.0000e+00    0.0000e+00  0.0000e+00    23.8299   114.950   0.0000e+00    0.0000e+00  0.0000e+00    0.0000e+00  -1283.70  64.0000    10.3800           11.4693           8.5000e+00     6.25000e+00
20          10.3869         0.0000e+00  0.0000e+00    0.0000e+00  0.0000e+00    31.2109   122.368   0.0000e+00    0.0000e+00  0.0000e+00    0.0000e+00  -1345.22  64.0000    9.89276           10.8811           8.5000e+00     6.25000e+00
