\comment LH ordfind table for Ball Code V, 1/11/08, J. Howell
\comment min and max wavelengths adjusted to not fall off array
\comment a2, a1, a0, b2, b1, b0 coefficients adjusted for all orders
\comment wavelength_center, _min, and _max adjusted
\comment a0 adjusted 11/05/08 to move trace to S17 locations
\order file
\character channelID = 3
| order | wavelength_center |    a5     |    a4     |    a3     |    a2     |    a1     |    a0     |    b5     |    b4     |    b3     |    b2     |    b1      |    b0     | wavelength_min | wavelength_max | width_search | width_found|
| int   | real              |    real   |    real   |    real   |    real   |    real   |    real   |    real   |    real   |    real   |    real   |    real    |    real   | real           | real           | real         | real       |
 11          35.44227         0.0000e+00  0.0000e+00  0.0000e+00   39.185636   89.637992 119.090340  0.0000e+00  0.0000e+00  0.0000e+00  895.604264  1307.103923    61.190848   33.7423            37.1979       6.5000e+00     4.750e+00
 12          32.59511         0.0000e+00  0.0000e+00  0.0000e+00  -17.670198   67.433177  98.655151  0.0000e+00  0.0000e+00  0.0000e+00  893.392213  1303.278025    61.181638   31.0186            34.2237       6.5000e+00     4.610e+00
 13          30.16398         0.0000e+00  0.0000e+00  0.0000e+00  -65.488467   48.563155  81.280080  0.0000e+00  0.0000e+00  0.0000e+00  891.823002  1300.456829    61.403114   28.7294            31.6452       6.5000e+00     4.750e+00
 14          28.05487         0.0000e+00  0.0000e+00  0.0000e+00 -106.680821   32.360550  66.287660  0.0000e+00  0.0000e+00  0.0000e+00  889.201223  1297.455364    61.281104   26.6979            29.4566       6.5000e+00     4.750e+00
 15          26.20182         0.0000e+00  0.0000e+00  0.0000e+00 -142.676373   18.364671  53.150764  0.0000e+00  0.0000e+00  0.0000e+00  883.142853  1293.218596    60.511493   24.9345            27.5110       6.5000e+00     4.800e+00
 16          24.59383         0.0000e+00  0.0000e+00  0.0000e+00 -173.841348    5.834181  41.580428  0.0000e+00  0.0000e+00  0.0000e+00  881.014973  1291.952397    60.880513   23.4043            25.8227       6.5000e+00     4.750e+00
 17          23.16192         0.0000e+00  0.0000e+00  0.0000e+00 -201.602210   -5.221147  31.292661  0.0000e+00  0.0000e+00  0.0000e+00  886.567532  1290.225443    60.831913   22.0230            24.3391       6.5000e+00     4.700e+00
 18          21.87663         0.0000e+00  0.0000e+00  0.0000e+00 -226.347993  -14.955800  22.123455  0.0000e+00  0.0000e+00  0.0000e+00  877.434462  1287.170819    60.293153   20.8097            22.9791       6.5000e+00     4.750e+00
 19          20.74866         0.0000e+00  0.0000e+00  0.0000e+00 -248.769551  -24.303508  13.792547  0.0000e+00  0.0000e+00  0.0000e+00  881.080389  1287.969211    61.295556   19.7618            21.7675       6.0000e+00     4.800e+00
 20          19.72084         0.0000e+00  0.0000e+00  0.0000e+00 -269.159672  -32.581504   6.369941  0.0000e+00  0.0000e+00  0.0000e+00  882.302522  1287.561421    61.606850   18.7511            20.7232       6.0000e+00     4.800e+00
